# Output from writeprf.pro
       0
       8      0.00000     100       6      2.61200
          39           0
          40           0
           6           0
          26           0
          27           0
          32           0
  height (km)  press (atm)   temp (K)    VMR gas  1   VMR gas  2   VMR gas  3
     -65.2430      9.87170      170.771     0.830000     0.150000    0.0220000
     -56.4560      8.19560      155.951     0.830000     0.150000    0.0220000
     -48.3940      6.80420      143.650     0.830000     0.150000    0.0220000
     -40.9320      5.64890      133.432     0.830000     0.150000    0.0220000
     -33.9700      4.68980      124.953     0.830000     0.150000    0.0220000
     -27.4230      3.89360      117.913     0.830000     0.150000    0.0220000
     -21.2420      3.23250      111.251     0.830000     0.150000    0.0220000
     -15.4050      2.68370      105.051     0.830000     0.150000    0.0220000
     -9.91800      2.22810      98.2241     0.830000     0.150000    0.0220000
     -4.78000      1.84980      92.0241     0.830000     0.150000    0.0220000
      0.00000      1.53570      84.8849     0.830000     0.150000    0.0220000
      4.42000      1.27500      78.7452     0.830000     0.150000    0.0136700
      8.53000      1.05850      73.3294     0.830000     0.150000   0.00591700
      12.3730     0.878790      68.8068     0.830000     0.150000   0.00267170
      15.9910     0.729590      65.0042     0.830000     0.150000   0.00126570
      19.4340     0.605720      62.2873     0.830000     0.150000  0.000728800
      22.7540     0.502880      60.4401     0.830000     0.150000  0.000511270
      25.9730     0.417500      58.5075     0.830000     0.150000  0.000337060
      29.0950     0.346610      56.8096     0.830000     0.150000  0.000230950
      32.1540     0.287760      56.2119     0.830000     0.150000  0.000226100
      35.1870     0.238910      55.7961     0.830000     0.150000  0.000235080
      38.2030     0.198340      55.5391     0.830000     0.150000  0.000258150
      41.2020     0.164670      55.1698     0.830000     0.150000  0.000271910
      44.1840     0.136710      54.9113     0.830000     0.150000  0.000297770
      47.1580     0.113500      54.8392     0.830000     0.150000  0.000348890
      50.1360    0.0942300      55.0275     0.830000     0.150000  0.000449760
      53.1280    0.0782310      55.3270     0.830000     0.150000  0.000596370
      56.1470    0.0649490      56.0203     0.830000     0.150000  0.000595690
      59.2080    0.0539220      56.8231     0.830000     0.150000  0.000594870
      62.3140    0.0447670      57.6649     0.830000     0.150000  0.000593970
      65.4680    0.0371660      58.5875     0.830000     0.150000  0.000592720
      68.6750    0.0308560      59.6062     0.830000     0.150000  0.000591460
      71.9400    0.0256170      60.6649     0.830000     0.150000  0.000590260
      75.2710    0.0212680      62.0216     0.830000     0.150000  0.000588850
      78.6780    0.0176570      64.2582     0.830000     0.150000  0.000587510
      82.1880    0.0146590      66.6858     0.830000     0.150000  0.000586040
      85.8360    0.0121700      69.3914     0.830000     0.150000  0.000584590
      89.6350    0.0101040      72.3744     0.830000     0.150000  0.000583090
      93.6470   0.00838850      81.9849     0.830000     0.150000  0.000581210
      97.9390   0.00696430      87.7876     0.830000     0.150000  0.000579300
      102.596   0.00578190      96.1379     0.830000     0.150000  0.000577040
      107.649   0.00480020      103.114     0.830000     0.150000  0.000574340
      113.061   0.00398520      110.200     0.830000     0.150000  0.000571610
      118.830   0.00330860      117.219     0.830000     0.150000  0.000568060
      124.938   0.00274690      123.801     0.830000     0.150000  0.000564550
      131.369   0.00228050      130.164     0.830000     0.150000  0.000560620
      138.104   0.00189330      136.217     0.830000     0.150000  0.000556250
      145.123   0.00157180      141.629     0.830000     0.150000  0.000552160
      152.392   0.00130500      146.450     0.830000     0.150000  0.000547060
      159.894   0.00108340      150.669     0.830000     0.150000  0.000542290
      167.603  0.000899470      154.027     0.830000     0.150000  0.000536890
      175.505  0.000746760      156.738     0.830000     0.150000  0.000531410
      183.583  0.000619970      158.646     0.830000     0.150000  0.000526230
      191.815  0.000514710      160.059     0.830000     0.150000  0.000520040
      200.191  0.000427320      161.126     0.830000     0.150000  0.000514390
      208.701  0.000354770      161.958     0.830000     0.150000  0.000508040
      217.344  0.000294540      162.647     0.830000     0.150000  0.000501760
      226.115  0.000244530      163.235     0.830000     0.150000  0.000495540
      235.000  0.000203010      163.553     0.830000     0.150000  0.000488810
      243.982  0.000168540      163.812     0.830000     0.150000  0.000482620
      253.041  0.000139930      163.988     0.830000     0.150000  0.000475470
      262.163  0.000116170      163.985     0.830000     0.150000  0.000468950
      271.331  9.64470e-05      163.897     0.830000     0.150000  0.000461810
      280.524  8.00720e-05      163.650     0.830000     0.150000  0.000454340
      289.729  6.64770e-05      163.372     0.830000     0.150000  0.000446700
      298.945  5.51910e-05      163.057     0.830000     0.150000  0.000437400
      308.174  4.58200e-05      162.697     0.830000     0.150000  0.000428590
      317.413  3.80410e-05      162.305     0.830000     0.150000  0.000416920
      326.665  3.15820e-05      161.889     0.830000     0.150000  0.000405410
      335.928  2.62200e-05      161.466     0.830000     0.150000  0.000392750
      345.205  2.17680e-05      161.044     0.830000     0.150000  0.000378520
      354.495  1.80720e-05      160.631     0.830000     0.150000  0.000364850
      363.797  1.50040e-05      160.239     0.830000     0.150000  0.000347460
      373.112  1.24570e-05      159.875     0.830000     0.150000  0.000331500
      382.443  1.03420e-05      159.548     0.830000     0.150000  0.000312630
      391.790  8.58590e-06      159.254     0.830000     0.150000  0.000293920
      401.152  7.12810e-06      158.999     0.830000     0.150000  0.000274090
      410.529  5.91790e-06      158.780     0.830000     0.150000  0.000252930
      419.922  4.91320e-06      158.595     0.830000     0.150000  0.000232720
      429.333  4.07900e-06      158.444     0.830000     0.150000  0.000209860
      438.786  3.38640e-06      158.319     0.830000     0.150000  0.000189330
      448.328  2.81150e-06      158.219     0.830000     0.150000  0.000166470
      458.013  2.33410e-06      158.143     0.830000     0.150000  0.000145720
      467.885  1.93780e-06      158.085     0.830000     0.150000  0.000125050
      477.994  1.60880e-06      158.044     0.830000     0.150000  0.000105750
      488.365  1.33570e-06      158.015     0.830000     0.150000  8.82330e-05
      499.002  1.10890e-06      158.000     0.830000     0.150000  7.18690e-05
      509.901  9.20640e-07      157.986     0.830000     0.150000  5.78210e-05
      521.066  7.64330e-07      157.952     0.830000     0.150000  4.52400e-05
      532.497  6.34560e-07      157.930     0.830000     0.150000  3.47510e-05
      544.194  5.26820e-07      157.912     0.830000     0.150000  2.59660e-05
      556.157  4.37380e-07      157.902     0.830000     0.150000  1.89360e-05
      568.388  3.63120e-07      157.897     0.830000     0.150000  1.32340e-05
      580.888  3.01470e-07      157.899     0.830000     0.150000  9.13120e-06
      593.659  2.50280e-07      157.908     0.830000     0.150000  5.91160e-06
      606.697  2.07790e-07      157.920     0.830000     0.150000  3.75330e-06
      620.008  1.72510e-07      158.126     0.830000     0.150000  2.26670e-06
      633.591  1.43220e-07      158.085     0.830000     0.150000  1.25820e-06
      647.423  1.18900e-07      158.052     0.830000     0.150000  7.18140e-07
      661.446  9.87170e-08      158.018     0.830000     0.150000  3.49060e-07
 Extra VMRs
  5.45240e-12  2.50780e-10  4.37320e-13
  3.54980e-11  1.08470e-09  7.79330e-13
  6.04430e-11  1.77700e-09  1.06330e-12
  8.11520e-11  2.35180e-09  1.29900e-12
  9.83460e-11  2.82910e-09  1.49470e-12
  1.12620e-10  3.22530e-09  1.65720e-12
  1.30450e-10  3.64540e-09  1.59540e-12
  1.50150e-10  4.06880e-09  1.38330e-12
  1.76520e-10  4.55820e-09  1.11090e-12
  2.01610e-10  5.00870e-09  8.53860e-13
  2.23830e-10  5.57110e-09  4.61000e-13
  2.09290e-10  5.94810e-09  1.71830e-13
  8.55070e-11  5.91900e-09  9.27300e-14
  1.15830e-11  4.85080e-09  3.98740e-14
  3.61750e-12  2.03030e-09  1.97270e-14
  8.84560e-14  5.76060e-10  8.14000e-15
  2.16890e-14  1.92300e-10  3.29130e-15
  5.10010e-15  6.92910e-11  1.45620e-15
  4.89210e-16  1.33060e-11  4.49410e-16
  3.08290e-16  9.47840e-12  2.04730e-16
  2.11940e-16  7.35790e-12  6.60790e-17
  1.80700e-16  6.64860e-12  2.15590e-17
  1.41380e-16  5.62000e-12  1.00480e-17
  1.19250e-16  5.09250e-12  7.33190e-18
  1.26620e-16  5.45970e-12  1.29880e-17
  1.85540e-16  7.45410e-12  4.17330e-17
  3.09910e-16  1.11080e-11  9.17730e-17
  7.71380e-16  2.29390e-11  2.44050e-16
  2.42840e-15  5.49160e-11  6.14090e-16
  4.99480e-15  1.00740e-10  1.13790e-15
  1.58120e-14  2.47080e-10  2.89990e-15
  5.76350e-14  6.47900e-10  7.53430e-15
  1.18480e-13  1.20290e-09  1.39050e-14
  6.04170e-13  3.96830e-09  4.39260e-14
  2.56680e-12  9.31200e-09  8.98800e-14
  1.82090e-11  3.75460e-08  2.70400e-13
  2.45190e-10  7.52760e-08  7.47700e-13
  6.60180e-10  1.21730e-07  1.49060e-12
  5.45440e-09  1.46980e-07  4.80640e-12
  9.16300e-09  1.67940e-07  1.02980e-11
  1.09230e-08  1.87380e-07  2.08370e-11
  1.25440e-08  2.10390e-07  3.52300e-11
  1.39860e-08  2.33580e-07  5.05410e-11
  1.60520e-08  2.65190e-07  7.15080e-11
  1.81590e-08  2.96660e-07  9.16110e-11
  2.06020e-08  3.31980e-07  1.12890e-10
  2.34070e-08  3.70930e-07  1.37150e-10
  2.60850e-08  4.07580e-07  1.60240e-10
  2.95790e-08  4.52980e-07  1.96900e-10
  3.28800e-08  4.95180e-07  2.33530e-10
  3.66860e-08  5.42180e-07  2.80580e-10
  4.07330e-08  5.90980e-07  3.38580e-10
  4.46270e-08  6.37380e-07  3.98140e-10
  4.93060e-08  6.90900e-07  4.84060e-10
  5.36010e-08  7.39480e-07  5.65750e-10
  5.85710e-08  7.93940e-07  6.69160e-10
  6.35220e-08  8.47120e-07  7.75960e-10
  6.85110e-08  8.99680e-07  8.86900e-10
  7.39010e-08  9.55440e-07  1.01050e-09
  7.88520e-08  1.00640e-06  1.12510e-09
  8.46290e-08  1.06430e-06  1.25400e-09
  8.99260e-08  1.11690e-06  1.36630e-09
  9.57340e-08  1.17310e-06  1.47400e-09
  1.02030e-07  1.23140e-06  1.56650e-09
  1.08600e-07  1.29040e-06  1.64600e-09
  1.17260e-07  1.36050e-06  1.71340e-09
  1.25640e-07  1.42610e-06  1.77130e-09
  1.37690e-07  1.50790e-06  1.84170e-09
  1.50170e-07  1.58710e-06  1.94160e-09
  1.64690e-07  1.67170e-06  2.09400e-09
  1.81910e-07  1.76280e-06  2.51170e-09
  1.98690e-07  1.84850e-06  2.99890e-09
  2.20580e-07  1.94970e-06  4.91900e-09
  2.40540e-07  2.04020e-06  7.51720e-09
  2.63710e-07  2.13900e-06  1.38650e-08
  2.85590e-07  2.22990e-06  2.47520e-08
  3.07490e-07  2.31760e-06  4.17500e-08
  3.27760e-07  2.39460e-06  7.44260e-08
  3.45760e-07  2.46090e-06  1.12150e-07
  3.58590e-07  2.49930e-06  1.84050e-07
  3.67970e-07  2.52260e-06  2.54510e-07
  3.65780e-07  2.47880e-06  3.55400e-07
  3.57130e-07  2.39620e-06  4.41200e-07
  3.36540e-07  2.23740e-06  5.16430e-07
  3.04690e-07  2.00780e-06  5.50380e-07
  2.67910e-07  1.74880e-06  5.58580e-07
  2.20130e-07  1.42650e-06  5.06750e-07
  1.76080e-07  1.13220e-06  4.47260e-07
  1.30430e-07  8.36080e-07  3.50070e-07
  9.26340e-08  5.92060e-07  2.63000e-07
  6.14370e-08  3.92600e-07  1.79840e-07
  3.88090e-08  2.47970e-07  1.15490e-07
  2.17250e-08  1.38790e-07  6.44990e-08
  1.23700e-08  7.94340e-08  3.60650e-08
  5.59170e-09  3.66270e-08  1.56430e-08
  2.45100e-09  1.74220e-08  6.94510e-09
  8.26990e-10  6.92410e-09  2.44430e-09
  2.06120e-10  2.23780e-09  7.19470e-10
  6.63480e-11  8.56880e-10  2.65130e-10
  1.24190e-11  1.80040e-10  5.97080e-11
