# Output from writeprf.pro
       0
       8      0.00000     100       6      2.61200
          39           0
          40           0
           6           0
          26           0
          27           0
          32           0
  height (km)  press (atm)   temp (K)    VMR gas  1   VMR gas  2   VMR gas  3
     -84.2750      9.87170      268.877     0.830000     0.150000    0.0220000
     -70.9120      8.19560      232.157     0.830000     0.150000    0.0220000
     -59.8190      6.80420      201.674     0.830000     0.150000    0.0220000
     -50.6080      5.64890      176.364     0.830000     0.150000    0.0220000
     -42.9620      4.68980      155.351     0.830000     0.150000    0.0220000
     -36.6140      3.89360      137.908     0.830000     0.150000    0.0220000
     -30.6960      3.23250      123.425     0.830000     0.150000    0.0220000
     -25.2550      2.68370      111.402     0.830000     0.150000    0.0220000
     -19.9340      2.22810      101.420     0.830000     0.150000    0.0220000
     -15.2590      1.84980      93.1324     0.830000     0.150000    0.0220000
     -10.3330      1.53570      86.2510     0.830000     0.150000    0.0187400
     -5.95000      1.27500      80.2841     0.830000     0.150000    0.0147130
     -1.53200      1.05850      75.1197     0.830000     0.150000   0.00756370
      2.44100     0.878790      70.6257     0.830000     0.150000   0.00293560
      6.30600     0.729590      66.9287     0.830000     0.150000   0.00151400
      9.94700     0.605720      64.2882     0.830000     0.150000  0.000757360
      13.3710     0.502880      62.6123     0.830000     0.150000  0.000522410
      16.9000     0.417500      60.8629     0.830000     0.150000  0.000359130
      19.9910     0.346610      59.6690     0.830000     0.150000  0.000231060
      23.3800     0.287760      58.9359     0.830000     0.150000  0.000227990
      26.5810     0.238910      58.6873     0.830000     0.150000  0.000237640
      29.6710     0.198340      58.5308     0.830000     0.150000  0.000259010
      32.9690     0.164670      58.3920     0.830000     0.150000  0.000274890
      36.0640     0.136710      58.2640     0.830000     0.150000  0.000301500
      39.1990     0.113500      58.3597     0.830000     0.150000  0.000352500
      42.4260    0.0942300      58.5962     0.830000     0.150000  0.000460910
      45.4550    0.0782310      59.0190     0.830000     0.150000  0.000609350
      48.7440    0.0649490      59.7844     0.830000     0.150000  0.000950580
      52.0030    0.0539220      60.6853     0.830000     0.150000   0.00124960
      55.1130    0.0447670      61.5599     0.830000     0.150000   0.00150200
      58.5880    0.0371660      62.3988     0.830000     0.150000   0.00149880
      62.0390    0.0308560      63.4344     0.830000     0.150000   0.00149560
      65.3530    0.0256170      64.5710     0.830000     0.150000   0.00149260
      69.0000    0.0212680      65.8139     0.830000     0.150000   0.00148900
      72.3660    0.0176570      67.2843     0.830000     0.150000   0.00148560
      76.2110    0.0146590      69.5163     0.830000     0.150000   0.00148190
      79.9970    0.0121700      72.0940     0.830000     0.150000   0.00147820
      83.7700    0.0101040      75.0016     0.830000     0.150000   0.00147450
      88.2140   0.00838850      79.5232     0.830000     0.150000   0.00146970
      92.5200   0.00696430      85.4456     0.830000     0.150000   0.00146490
      97.3310   0.00578190      91.8802     0.830000     0.150000   0.00145920
      102.630   0.00480020      98.5378     0.830000     0.150000   0.00145230
      107.806   0.00398520      105.356     0.830000     0.150000   0.00144540
      114.216   0.00330860      111.767     0.830000     0.150000   0.00143650
      120.405   0.00274690      117.639     0.830000     0.150000   0.00142750
      127.061   0.00228050      122.163     0.830000     0.150000   0.00141750
      134.196   0.00189330      125.632     0.830000     0.150000   0.00140640
      140.843   0.00157180      128.811     0.830000     0.150000   0.00139600
      148.816   0.00130500      132.419     0.830000     0.150000   0.00138310
      156.164   0.00108340      135.658     0.830000     0.150000   0.00137100
      164.195  0.000899470      138.317     0.830000     0.150000   0.00135760
      172.476  0.000746760      140.471     0.830000     0.150000   0.00134350
      180.323  0.000619970      142.265     0.830000     0.150000   0.00133010
      189.339  0.000514710      143.977     0.830000     0.150000   0.00131420
      197.527  0.000427320      145.663     0.830000     0.150000   0.00129980
      206.716  0.000354770      147.439     0.830000     0.150000   0.00128400
      215.747  0.000294540      148.966     0.830000     0.150000   0.00126830
      224.735  0.000244530      150.428     0.830000     0.150000   0.00125250
      234.347  0.000203010      151.845     0.830000     0.150000   0.00123550
      243.150  0.000168540      153.271     0.830000     0.150000   0.00121990
      253.419  0.000139930      154.206     0.830000     0.150000   0.00120190
      262.733  0.000116170      155.040     0.830000     0.150000   0.00118540
      272.682  9.64470e-05      156.041     0.830000     0.150000   0.00116730
      282.496  8.00720e-05      156.870     0.830000     0.150000   0.00114830
      292.058  6.64770e-05      157.511     0.830000     0.150000   0.00112890
      302.325  5.51910e-05      158.022     0.830000     0.150000   0.00110520
      311.657  4.58200e-05      158.573     0.830000     0.150000   0.00108280
      322.167  3.80410e-05      159.483     0.830000     0.150000   0.00105320
      331.983  3.15820e-05      160.304     0.830000     0.150000   0.00102410
      341.957  2.62200e-05      160.806     0.830000     0.150000  0.000992070
      352.207  2.17680e-05      161.345     0.830000     0.150000  0.000955940
      361.667  1.80720e-05      161.856     0.830000     0.150000  0.000921330
      372.406  1.50040e-05      162.337     0.830000     0.150000  0.000877210
      382.001  1.24570e-05      162.801     0.830000     0.150000  0.000836800
      392.503  1.03420e-05      163.211     0.830000     0.150000  0.000789060
      402.492  8.58590e-06      163.575     0.830000     0.150000  0.000741730
      412.586  7.12810e-06      163.902     0.830000     0.150000  0.000691550
      422.928  5.91790e-06      164.207     0.830000     0.150000  0.000638070
      432.634  4.91320e-06      164.489     0.830000     0.150000  0.000586920
      443.332  4.07900e-06      164.749     0.830000     0.150000  0.000529100
      452.920  3.38640e-06      164.995     0.830000     0.150000  0.000477160
      463.709  2.81150e-06      165.209     0.830000     0.150000  0.000419400
      473.712  2.33410e-06      165.385     0.830000     0.150000  0.000367020
      484.067  1.93780e-06      165.524     0.830000     0.150000  0.000314870
      494.472  1.60880e-06      165.644     0.830000     0.150000  0.000266210
      504.376  1.33570e-06      165.754     0.830000     0.150000  0.000222050
      515.184  1.10890e-06      165.858     0.830000     0.150000  0.000180820
      524.951  9.20630e-07      165.958     0.830000     0.150000  0.000145430
      535.895  7.64330e-07      166.066     0.830000     0.150000  0.000113760
      546.147  6.34560e-07      166.170     0.830000     0.150000  8.73640e-05
      556.644  5.26820e-07      166.267     0.830000     0.150000  6.52640e-05
      567.475  4.37380e-07      166.371     0.830000     0.150000  4.75830e-05
      577.567  3.63120e-07      166.463     0.830000     0.150000  3.32510e-05
      589.199  3.01470e-07      166.546     0.830000     0.150000  2.29390e-05
      599.857  2.50280e-07      166.633     0.830000     0.150000  1.48500e-05
      611.461  2.07790e-07      166.714     0.830000     0.150000  9.42710e-06
      623.257  1.72510e-07      166.790     0.830000     0.150000  5.69250e-06
      634.649  1.43220e-07      166.859     0.830000     0.150000  3.15990e-06
      647.733  1.18900e-07      166.925     0.830000     0.150000  1.80330e-06
      660.056  9.87170e-08      166.981     0.830000     0.150000  8.76260e-07
 Extra VMRs
  6.50070e-12  3.45770e-10  6.39070e-13
  4.63110e-11  1.48940e-09  1.14480e-12
  7.93620e-11  2.43880e-09  1.56460e-12
  1.06800e-10  3.22710e-09  1.91320e-12
  1.29580e-10  3.88150e-09  2.20260e-12
  1.48500e-10  4.42480e-09  2.44280e-12
  1.72640e-10  4.99980e-09  2.35750e-12
  1.99580e-10  5.57850e-09  2.05400e-12
  2.37100e-10  6.24610e-09  1.61130e-12
  2.73090e-10  6.86010e-09  1.18280e-12
  3.05870e-10  7.62850e-09  6.33260e-13
  2.87480e-10  8.14260e-09  2.32590e-13
  1.17590e-10  8.09960e-09  1.26640e-13
  1.60800e-11  6.63620e-09  5.55250e-14
  5.02260e-12  2.77720e-09  2.76720e-14
  1.23670e-13  7.87570e-10  1.15690e-14
  3.03790e-14  2.62850e-10  4.71600e-15
  7.16720e-15  9.46990e-11  2.10180e-15
  6.90360e-16  1.81810e-11  6.56740e-16
  4.35920e-16  1.29480e-11  3.01430e-16
  3.00500e-16  1.00490e-11  9.95790e-17
  2.56760e-16  9.07910e-12  3.39880e-17
  2.01180e-16  7.67120e-12  1.58100e-17
  1.70000e-16  6.94910e-12  9.52810e-18
  1.80810e-16  7.45150e-12  1.35940e-17
  2.65360e-16  1.01690e-11  3.88560e-17
  4.43730e-16  1.51500e-11  8.34670e-17
  1.10550e-15  3.12890e-11  2.20110e-16
  3.48390e-15  7.49030e-11  5.46990e-16
  7.16840e-15  1.37400e-10  1.00540e-15
  2.27100e-14  3.36850e-10  2.46780e-15
  8.28390e-14  8.83430e-10  5.95050e-15
  1.70330e-13  1.64030e-09  1.06460e-14
  8.68940e-13  5.41010e-09  2.96200e-14
  3.69320e-12  1.26960e-08  5.75100e-14
  2.62050e-11  5.11930e-08  1.60860e-13
  3.52870e-10  1.02620e-07  4.25950e-13
  9.50110e-10  1.65930e-07  8.35850e-13
  7.85610e-09  2.00410e-07  2.52500e-12
  1.32030e-08  2.29030e-07  4.95250e-12
  1.57520e-08  2.55580e-07  9.15450e-12
  1.80830e-08  2.86950e-07  1.34600e-11
  2.01460e-08  3.18550e-07  1.75200e-11
  2.30250e-08  3.61700e-07  2.06510e-11
  2.59220e-08  4.04700e-07  2.31690e-11
  2.92200e-08  4.53010e-07  2.51220e-11
  3.29230e-08  5.06280e-07  2.75860e-11
  3.64290e-08  5.56410e-07  3.00100e-11
  4.08660e-08  6.18580e-07  3.73330e-11
  4.50280e-08  6.76390e-07  4.43040e-11
  4.97540e-08  7.40770e-07  5.22870e-11
  5.47390e-08  8.07640e-07  5.94410e-11
  5.95170e-08  8.71240e-07  6.56980e-11
  6.51580e-08  9.44490e-07  7.18930e-11
  7.03230e-08  1.01100e-06  7.70650e-11
  7.62730e-08  1.08590e-06  8.09990e-11
  8.21310e-08  1.15900e-06  8.26180e-11
  8.79710e-08  1.23150e-06  8.22100e-11
  9.42130e-08  1.30810e-06  7.44620e-11
  9.99260e-08  1.37790e-06  6.52230e-11
  1.06470e-07  1.45800e-06  4.91540e-11
  1.12390e-07  1.53070e-06  3.63460e-11
  1.18710e-07  1.60880e-06  2.72120e-11
  1.25220e-07  1.69000e-06  2.11250e-11
  1.31780e-07  1.77220e-06  1.74320e-11
  1.39510e-07  1.87080e-06  1.55340e-11
  1.46750e-07  1.96350e-06  1.43550e-11
  1.55680e-07  2.08020e-06  1.46130e-11
  1.64280e-07  2.19360e-06  1.56360e-11
  1.73400e-07  2.31540e-06  1.78390e-11
  1.83170e-07  2.44730e-06  2.23900e-11
  1.92330e-07  2.57150e-06  2.74810e-11
  2.03070e-07  2.72030e-06  3.94330e-11
  2.12660e-07  2.85370e-06  5.52930e-11
  2.23070e-07  3.00100e-06  9.34400e-11
  2.32750e-07  3.13910e-06  2.31970e-10
  2.42250e-07  3.27620e-06  4.98370e-10
  2.51110e-07  3.40770e-06  2.04310e-09
  2.59030e-07  3.52710e-06  4.08110e-09
  2.65400e-07  3.62700e-06  1.39570e-08
  2.70350e-07  3.70340e-06  2.53970e-08
  2.71160e-07  3.69400e-06  5.50820e-08
  2.68750e-07  3.61580e-06  8.79640e-08
  2.60710e-07  3.41290e-06  1.31410e-07
  2.45340e-07  3.08130e-06  1.70080e-07
  2.26490e-07  2.69160e-06  2.04010e-07
  1.97730e-07  2.18860e-06  2.13190e-07
  1.70180e-07  1.72680e-06  2.14090e-07
  1.36820e-07  1.26240e-06  1.84430e-07
  1.07450e-07  8.82630e-07  1.52100e-07
  8.02170e-08  5.76970e-07  1.12120e-07
  5.77950e-08  3.59030e-07  7.68250e-08
  3.92780e-08  1.96720e-07  4.64260e-08
  2.60410e-08  1.11360e-07  2.71690e-08
  1.57170e-08  5.02110e-08  1.30000e-08
  8.98710e-09  2.36510e-08  6.23800e-09
  4.57260e-09  9.25490e-09  2.51410e-09
  1.77540e-09  2.96510e-09  8.20530e-10
  7.48930e-10  1.12980e-09  3.19920e-10
  1.76440e-10  2.36410e-10  7.31830e-11
